Frequency(Hz), Magnitude(ohm), Phase(deg)
20.000, 5.500, 3.314
20.291, 5.499, 3.334
20.585, 5.499, 3.355
20.884, 5.499, 3.376
21.188, 5.499, 3.400
21.495, 5.500, 3.423
21.808, 5.501, 3.446
22.124, 5.502, 3.467
22.446, 5.504, 3.481
22.772, 5.506, 3.490
23.103, 5.508, 3.501
23.438, 5.512, 3.519
23.779, 5.516, 3.576
24.124, 5.522, 3.644
24.474, 5.528, 3.714
24.830, 5.533, 3.776
25.191, 5.534, 3.829
25.557, 5.531, 3.879
25.928, 5.527, 3.926
26.304, 5.526, 3.969
26.686, 5.529, 4.012
27.074, 5.534, 4.051
27.467, 5.540, 4.083
27.866, 5.544, 4.104
28.271, 5.544, 4.037
28.682, 5.543, 3.924
29.098, 5.542, 3.828
29.521, 5.548, 3.831
29.950, 5.563, 3.890
30.385, 5.581, 3.973
30.826, 5.590, 4.075
31.274, 5.586, 4.199
31.728, 5.578, 4.345
32.189, 5.574, 4.470
32.657, 5.573, 4.475
33.131, 5.574, 4.422
33.612, 5.577, 4.401
34.101, 5.583, 4.472
34.596, 5.592, 4.612
35.099, 5.599, 4.714
35.608, 5.589, 4.635
36.126, 5.570, 4.466
36.650, 5.559, 4.371
37.183, 5.569, 4.441
37.723, 5.580, 4.548
38.271, 5.589, 4.585
38.827, 5.597, 4.539
39.391, 5.602, 4.495
39.963, 5.597, 4.576
40.543, 5.585, 4.692
41.132, 5.577, 4.804
41.730, 5.572, 4.914
42.336, 5.572, 5.018
42.951, 5.580, 5.047
43.575, 5.591, 5.014
44.208, 5.602, 5.062
44.850, 5.613, 5.209
45.501, 5.622, 5.314
46.162, 5.602, 5.324
46.833, 5.583, 5.335
47.513, 5.593, 5.360
48.203, 5.608, 5.389
48.903, 5.600, 5.312
49.614, 5.584, 5.168
50.334, 5.597, 5.308
51.066, 5.621, 5.525
51.807, 5.628, 5.737
52.560, 5.631, 5.944
53.323, 5.636, 6.047
54.098, 5.643, 6.075
54.884, 5.636, 6.051
55.681, 5.628, 6.022
56.490, 5.628, 6.140
57.310, 5.635, 6.248
58.143, 5.653, 6.312
58.987, 5.661, 6.317
59.844, 5.658, 6.236
60.713, 5.652, 6.461
61.595, 5.645, 6.765
62.490, 5.643, 6.652
63.398, 5.639, 6.739
64.319, 5.634, 7.083
65.253, 5.638, 7.094
66.201, 5.643, 7.003
67.162, 5.644, 6.844
68.138, 5.661, 7.032
69.128, 5.672, 7.194
70.132, 5.657, 6.935
71.151, 5.643, 7.027
72.184, 5.646, 7.157
73.233, 5.680, 7.290
74.296, 5.661, 7.554
75.376, 5.659, 7.609
76.470, 5.676, 7.577
77.581, 5.707, 7.729
78.708, 5.673, 8.078
79.851, 5.666, 8.120
81.011, 5.670, 8.076
82.188, 5.671, 8.112
83.382, 5.671, 8.127
84.593, 5.684, 8.343
85.822, 5.702, 8.525
87.068, 5.693, 8.658
88.333, 5.670, 8.703
89.616, 5.686, 8.684
90.918, 5.709, 8.994
92.239, 5.677, 9.029
93.579, 5.723, 8.943
94.938, 5.720, 9.084
96.317, 5.678, 9.487
97.716, 5.694, 9.310
99.135, 5.700, 9.538
100.575, 5.740, 9.722
102.036, 5.734, 9.836
103.518, 5.706, 10.066
105.022, 5.701, 10.124
106.548, 5.732, 10.177
108.095, 5.730, 10.373
109.665, 5.747, 10.504
111.258, 5.710, 10.317
112.874, 5.747, 10.680
114.514, 5.765, 11.075
116.177, 5.761, 11.127
117.865, 5.770, 11.148
119.577, 5.749, 11.533
121.314, 5.755, 11.535
123.076, 5.723, 11.917
124.864, 5.769, 11.723
126.678, 5.766, 11.960
128.518, 5.802, 12.143
130.385, 5.778, 12.668
132.279, 5.764, 12.330
134.200, 5.780, 12.626
136.149, 5.776, 12.783
138.127, 5.832, 12.996
140.133, 5.776, 12.874
142.169, 5.771, 14.157
144.234, 5.831, 13.789
146.329, 5.790, 14.209
148.455, 5.823, 13.984
150.611, 5.868, 14.009
152.799, 5.829, 14.269
155.018, 5.841, 14.401
157.270, 5.859, 14.681
159.554, 5.821, 14.854
161.872, 5.898, 15.376
164.223, 5.893, 15.532
166.609, 5.867, 15.855
169.029, 5.877, 15.995
171.484, 5.878, 16.450
173.975, 5.880, 16.480
176.502, 5.908, 16.601
179.066, 5.924, 17.150
181.667, 5.943, 17.036
184.306, 5.961, 17.422
186.983, 5.938, 17.667
189.699, 5.948, 17.925
192.455, 5.936, 18.217
195.250, 5.946, 18.717
198.086, 5.998, 18.763
200.964, 5.981, 18.786
203.883, 5.991, 19.179
206.844, 6.005, 19.925
209.849, 6.037, 20.138
212.897, 6.042, 20.414
215.990, 6.049, 20.557
219.127, 6.086, 20.949
222.310, 6.100, 21.581
225.539, 6.153, 21.950
228.815, 6.108, 21.525
232.139, 6.148, 22.108
235.511, 6.195, 22.751
238.932, 6.170, 23.517
242.403, 6.218, 23.411
245.924, 6.256, 24.193
249.496, 6.264, 24.469
253.120, 6.288, 24.771
256.797, 6.329, 25.079
260.527, 6.374, 25.434
264.311, 6.340, 25.786
268.151, 6.426, 26.129
272.046, 6.432, 26.671
275.997, 6.447, 27.086
280.006, 6.504, 27.633
284.074, 6.505, 28.134
288.200, 6.547, 29.068
292.386, 6.590, 29.129
296.633, 6.654, 29.742
300.942, 6.674, 30.181
305.314, 6.716, 30.556
309.748, 6.780, 31.174
314.248, 6.836, 31.724
318.812, 6.857, 32.268
323.443, 6.959, 32.568
328.142, 7.002, 33.099
332.908, 7.065, 33.733
337.744, 7.134, 34.484
342.650, 7.170, 35.482
347.627, 7.271, 36.010
352.677, 7.387, 36.502
357.799, 7.450, 37.106
362.997, 7.599, 37.813
368.269, 7.610, 38.403
373.619, 7.750, 39.103
379.046, 7.874, 39.720
384.552, 8.044, 40.281
390.138, 8.158, 41.162
395.805, 8.274, 41.925
401.554, 8.484, 42.524
407.387, 8.666, 43.538
413.304, 8.866, 43.809
419.308, 9.083, 44.880
425.399, 9.258, 45.473
431.578, 9.478, 46.144
437.847, 9.803, 47.364
444.207, 10.159, 47.731
450.659, 10.465, 47.938
457.205, 10.961, 48.256
463.847, 11.431, 49.015
470.584, 11.823, 49.288
477.420, 12.487, 49.799
484.355, 13.037, 49.461
491.390, 13.797, 49.338
498.528, 14.513, 49.394
505.770, 15.494, 49.226
513.116, 16.673, 48.432
520.570, 18.101, 46.800
528.131, 19.603, 44.031
535.803, 21.361, 40.636
543.586, 23.076, 35.372
551.482, 24.415, 29.942
559.492, 25.464, 22.256
567.619, 24.659, 14.125
575.864, 24.125, 10.477
584.229, 23.345, 4.891
592.716, 22.817, -0.389
601.325, 21.486, -5.976
610.060, 19.182, -9.277
618.921, 17.572, -9.870
627.912, 16.655, -6.647
637.032, 17.279, -9.660
646.286, 16.480, -10.493
655.673, 15.746, -11.217
665.198, 15.473, -12.654
674.860, 14.237, -13.566
684.663, 14.529, -9.991
694.608, 14.867, -15.535
704.698, 14.105, -16.208
714.934, 13.835, -16.173
725.319, 13.036, -19.382
735.855, 12.461, -17.947
746.543, 12.035, -18.272
757.387, 11.786, -18.751
768.389, 11.120, -19.880
779.550, 10.332, -17.690
790.874, 10.229, -15.006
802.362, 10.248, -12.479
814.017, 10.425, -14.411
825.841, 10.222, -16.016
837.837, 9.577, -14.835
850.007, 9.166, -14.609
862.354, 8.792, -11.082
874.880, 8.878, -8.503
887.588, 8.928, -7.847
900.481, 8.928, -6.027
913.561, 8.979, -5.844
926.831, 8.983, -6.077
940.294, 8.636, -5.714
953.953, 8.665, -3.090
967.810, 8.668, -1.650
981.868, 8.671, -0.475
996.130, 8.838, -0.764
1010.599, 8.988, 1.043
1025.279, 8.895, 2.092
1040.172, 8.845, 1.476
1055.281, 8.559, 1.959
1070.610, 8.582, 4.504
1086.161, 8.926, 6.573
1101.938, 8.943, 7.232
1117.945, 8.969, 8.465
1134.184, 9.223, 10.574
1150.659, 9.456, 10.258
1167.373, 9.640, 12.746
1184.330, 10.044, 12.108
1201.533, 10.299, 12.895
1218.986, 10.555, 11.814
1236.693, 10.663, 13.080
1254.656, 11.027, 13.349
1272.881, 11.564, 13.931
1291.370, 12.201, 11.592
1310.129, 11.905, 9.951
1329.159, 12.383, 10.321
1348.466, 12.512, 10.618
1368.053, 13.465, 9.807
1387.925, 13.475, 5.584
1408.086, 13.444, 6.079
1428.539, 13.846, 5.562
1449.290, 14.472, 3.769
1470.342, 14.491, 0.712
1491.700, 14.637, -0.539
1513.367, 14.655, -2.784
1535.350, 15.228, -3.483
1557.652, 15.218, -9.632
1580.278, 14.276, -10.267
1603.233, 14.332, -9.957
1626.521, 14.986, -12.452
1650.147, 14.710, -16.831
1674.117, 13.669, -19.168
1698.434, 13.606, -17.422
1723.105, 13.733, -22.229
1748.135, 12.609, -23.500
1773.527, 12.339, -21.425
1799.289, 12.398, -23.542
1825.425, 12.023, -25.672
1851.941, 11.263, -25.856
1878.841, 11.365, -24.583
1906.133, 10.936, -27.038
1933.821, 10.392, -26.758
1961.911, 10.200, -25.113
1990.409, 10.208, -25.656
2019.321, 9.725, -26.434
2048.653, 9.597, -24.711
2078.411, 9.406, -25.499
2108.602, 9.225, -24.579
2139.230, 9.073, -24.000
2170.304, 9.029, -24.083
2201.829, 8.737, -23.749
2233.813, 8.698, -23.258
2266.260, 8.551, -23.248
2299.179, 8.366, -23.045
2332.576, 8.206, -22.175
2366.458, 8.028, -21.960
2400.833, 7.912, -20.415
2435.707, 7.880, -19.523
2471.087, 7.796, -19.119
2506.981, 7.722, -17.368
2543.397, 7.871, -17.943
2580.342, 7.687, -17.264
2617.823, 7.675, -17.267
2655.848, 7.564, -16.841
2694.426, 7.452, -15.725
2733.565, 7.455, -15.079
2773.272, 7.365, -14.349
2813.555, 7.406, -13.406
2854.424, 7.355, -13.087
2895.887, 7.377, -12.246
2937.951, 7.357, -12.037
2980.627, 7.360, -11.251
3023.923, 7.382, -11.031
3067.847, 7.365, -10.385
3112.410, 7.387, -10.329
3157.620, 7.385, -9.872
3203.487, 7.417, -9.892
3250.019, 7.344, -9.626
3297.228, 7.392, -9.336
3345.123, 7.326, -9.027
3393.713, 7.374, -9.129
3443.009, 7.333, -8.610
3493.021, 7.307, -8.904
3543.760, 7.303, -8.319
3595.235, 7.231, -8.276
3647.458, 7.280, -8.023
3700.440, 7.200, -7.931
3754.192, 7.196, -7.932
3808.724, 7.140, -7.476
3864.048, 7.097, -7.325
3920.176, 7.077, -6.908
3977.119, 7.036, -6.580
4034.890, 7.005, -6.167
4093.499, 6.976, -5.764
4152.960, 6.953, -5.375
4213.285, 6.927, -5.037
4274.485, 6.904, -4.489
4336.576, 6.886, -4.141
4399.567, 6.862, -3.616
4463.474, 6.855, -3.220
4528.309, 6.837, -2.728
4594.086, 6.834, -2.226
4660.818, 6.832, -1.772
4728.520, 6.830, -1.353
4797.205, 6.827, -0.860
4866.887, 6.839, -0.460
4937.582, 6.845, -0.107
5009.304, 6.838, 0.229
5082.067, 6.840, 0.558
5155.888, 6.844, 1.045
5230.781, 6.854, 1.417
5306.762, 6.863, 1.839
5383.846, 6.875, 2.145
5462.050, 6.877, 2.418
5541.390, 6.875, 2.843
5621.883, 6.882, 3.234
5703.544, 6.891, 3.539
5786.392, 6.907, 3.909
5870.443, 6.914, 4.174
5955.716, 6.921, 4.480
6042.227, 6.923, 4.887
6129.994, 6.930, 5.221
6219.037, 6.940, 5.623
6309.372, 6.958, 5.973
6401.021, 6.968, 6.325
6494.000, 6.983, 6.642
6588.329, 6.998, 7.016
6684.029, 7.023, 7.287
6781.120, 7.032, 7.584
6879.620, 7.047, 7.915
6979.551, 7.062, 8.254
7080.934, 7.087, 8.524
7183.790, 7.102, 8.792
7288.139, 7.122, 9.144
7394.004, 7.143, 9.425
7501.407, 7.164, 9.741
7610.370, 7.182, 9.937
7720.916, 7.209, 10.315
7833.067, 7.232, 10.596
7946.848, 7.247, 10.831
8062.282, 7.277, 11.136
8179.392, 7.296, 11.386
8298.203, 7.321, 11.621
8418.740, 7.347, 11.953
8541.028, 7.379, 12.316
8665.093, 7.431, 12.299
8790.959, 7.423, 12.604
8918.654, 7.466, 13.169
9048.203, 7.564, 13.761
9179.635, 7.722, 13.261
9312.976, 7.742, 12.575
9448.253, 7.720, 11.214
9585.495, 7.461, 11.628
9724.730, 7.482, 13.155
9865.989, 7.619, 13.434
10009.300, 7.597, 12.806
10154.691, 7.534, 13.247
10302.195, 7.529, 13.761
10451.842, 7.530, 14.320
10603.662, 7.565, 14.887
10757.688, 7.660, 15.062
10913.950, 7.647, 14.938
11072.483, 7.637, 15.164
11233.318, 7.624, 15.565
11396.490, 7.637, 16.015
11562.032, 7.669, 16.540
11729.979, 7.706, 16.915
11900.364, 7.754, 17.321
12073.226, 7.833, 17.464
12248.598, 7.878, 17.077
12426.517, 7.770, 17.225
12607.021, 7.892, 18.392
12790.146, 7.853, 17.500
12975.932, 7.799, 18.309
13164.416, 7.800, 19.084
13355.639, 7.796, 19.992
13549.639, 7.875, 21.225
13746.456, 8.010, 21.908
13946.133, 8.074, 22.561
14148.710, 8.174, 24.538
14354.229, 8.578, 26.488
14562.734, 9.388, 27.443
14774.269, 10.686, 21.151
14988.875, 9.923, 13.398
15206.599, 9.035, 10.294
15427.485, 8.608, 15.010
15651.580, 8.924, 14.623
15878.930, 8.596, 11.614
16109.582, 8.182, 13.796
16343.585, 8.158, 14.948
16580.986, 8.176, 15.677
16821.838, 8.039, 15.860
17066.186, 7.980, 16.897
17314.084, 7.939, 18.145
17565.582, 8.069, 19.393
17820.734, 8.121, 17.916
18079.594, 7.908, 19.535
18342.213, 8.142, 20.500
18608.645, 8.153, 20.470
18878.949, 8.033, 19.559
19153.178, 7.958, 21.497
19431.391, 8.091, 22.898
19713.646, 8.277, 21.596
20000.000, 8.063, 21.847
