Frequency(Hz), Magnitude(ohm), Phase(deg)
20.000, 10.117, -0.028
20.291, 10.120, -0.025
20.585, 10.121, -0.022
20.884, 10.120, -0.018
21.188, 10.119, -0.013
21.495, 10.118, -0.009
21.808, 10.117, -0.004
22.124, 10.117, -0.001
22.446, 10.117, 0.003
22.772, 10.118, 0.005
23.103, 10.119, 0.007
23.438, 10.120, 0.009
23.779, 10.118, 0.006
24.124, 10.114, 0.001
24.474, 10.109, -0.004
24.830, 10.106, -0.008
25.191, 10.108, -0.010
25.557, 10.113, -0.011
25.928, 10.118, -0.011
26.304, 10.121, -0.009
26.686, 10.119, -0.003
27.074, 10.116, 0.007
27.467, 10.112, 0.018
27.866, 10.110, 0.025
28.271, 10.109, 0.029
28.682, 10.109, 0.029
29.098, 10.109, 0.026
29.521, 10.109, 0.018
29.950, 10.109, -0.000
30.385, 10.110, -0.021
30.826, 10.111, -0.032
31.274, 10.113, -0.029
31.728, 10.115, -0.021
32.189, 10.117, -0.009
32.657, 10.115, 0.007
33.131, 10.112, 0.028
33.612, 10.109, 0.046
34.101, 10.110, 0.038
34.596, 10.111, 0.023
35.099, 10.112, 0.010
35.608, 10.112, -0.001
36.126, 10.112, -0.011
36.650, 10.113, -0.018
37.183, 10.113, -0.020
37.723, 10.114, -0.020
38.271, 10.114, -0.015
38.827, 10.117, -0.005
39.391, 10.119, 0.005
39.963, 10.119, 0.005
40.543, 10.118, -0.002
41.132, 10.118, -0.005
41.730, 10.118, -0.002
42.336, 10.118, 0.001
42.951, 10.116, 0.005
43.575, 10.114, 0.011
44.208, 10.113, 0.009
44.850, 10.113, -0.008
45.501, 10.112, -0.021
46.162, 10.110, -0.020
46.833, 10.107, -0.020
47.513, 10.106, -0.022
48.203, 10.105, -0.028
48.903, 10.106, -0.091
49.614, 10.108, -0.193
50.334, 10.110, -0.146
51.066, 10.114, -0.032
51.807, 10.114, -0.015
52.560, 10.112, -0.025
53.323, 10.111, -0.045
54.098, 10.110, -0.070
54.884, 10.111, -0.063
55.681, 10.112, -0.047
56.490, 10.109, -0.026
57.310, 10.107, -0.009
58.143, 10.107, -0.009
58.987, 10.109, -0.011
59.844, 10.111, -0.013
60.713, 10.110, -0.021
61.595, 10.107, -0.028
62.490, 10.113, -0.003
63.398, 10.114, 0.015
64.319, 10.110, 0.022
65.253, 10.107, 0.011
66.201, 10.105, -0.001
67.162, 10.109, -0.007
68.138, 10.111, 0.015
69.128, 10.113, 0.029
70.132, 10.114, -0.014
71.151, 10.111, -0.024
72.184, 10.110, -0.017
73.233, 10.112, -0.003
74.296, 10.110, 0.003
75.376, 10.113, -0.014
76.470, 10.116, -0.034
77.581, 10.109, -0.024
78.708, 10.112, -0.021
79.851, 10.115, -0.026
81.011, 10.115, -0.028
82.188, 10.113, -0.017
83.382, 10.115, -0.027
84.593, 10.113, -0.019
85.822, 10.111, -0.018
87.068, 10.110, -0.005
88.333, 10.111, 0.010
89.616, 10.112, -0.004
90.918, 10.113, -0.025
92.239, 10.110, -0.026
93.579, 10.112, -0.026
94.938, 10.111, -0.002
96.317, 10.110, 0.013
97.716, 10.111, -0.004
99.135, 10.114, -0.001
100.575, 10.114, -0.012
102.036, 10.111, -0.018
103.518, 10.111, -0.030
105.022, 10.109, -0.021
106.548, 10.107, -0.029
108.095, 10.107, -0.035
109.665, 10.112, -0.031
111.258, 10.111, -0.017
112.874, 10.111, -0.030
114.514, 10.112, -0.014
116.177, 10.113, -0.026
117.865, 10.116, -0.011
119.577, 10.111, -0.022
121.314, 10.113, -0.014
123.076, 10.109, -0.009
124.864, 10.112, -0.012
126.678, 10.113, -0.032
128.518, 10.113, 0.009
130.385, 10.115, -0.061
132.279, 10.111, -0.021
134.200, 10.110, -0.022
136.149, 10.115, -0.003
138.127, 10.117, -0.028
140.133, 10.115, -0.029
142.169, 10.116, 0.009
144.234, 10.112, -0.006
146.329, 10.114, -0.009
148.455, 10.115, -0.003
150.611, 10.120, -0.045
152.799, 10.119, -0.012
155.018, 10.113, -0.030
157.270, 10.117, -0.011
159.554, 10.116, -0.002
161.872, 10.111, -0.020
164.223, 10.117, -0.004
166.609, 10.115, -0.033
169.029, 10.113, -0.008
171.484, 10.108, -0.023
173.975, 10.107, -0.048
176.502, 10.110, -0.011
179.066, 10.115, -0.028
181.667, 10.108, -0.040
184.306, 10.112, -0.039
186.983, 10.110, -0.001
189.699, 10.109, -0.026
192.455, 10.110, -0.029
195.250, 10.112, -0.016
198.086, 10.110, -0.048
200.964, 10.111, -0.040
203.883, 10.109, -0.015
206.844, 10.114, -0.021
209.849, 10.109, -0.011
212.897, 10.113, -0.020
215.990, 10.111, 0.023
219.127, 10.110, -0.019
222.310, 10.113, 0.010
225.539, 10.116, 0.022
228.815, 10.113, -0.025
232.139, 10.112, -0.012
235.511, 10.111, -0.028
238.932, 10.115, -0.026
242.403, 10.113, -0.013
245.924, 10.118, -0.027
249.496, 10.118, -0.047
253.120, 10.113, -0.024
256.797, 10.110, -0.043
260.527, 10.116, -0.011
264.311, 10.113, -0.023
268.151, 10.108, -0.013
272.046, 10.113, -0.019
275.997, 10.114, -0.004
280.006, 10.114, -0.011
284.074, 10.108, -0.020
288.200, 10.111, -0.040
292.386, 10.109, -0.017
296.633, 10.112, -0.019
300.942, 10.112, -0.017
305.314, 10.116, 0.002
309.748, 10.112, -0.018
314.248, 10.108, 0.000
318.812, 10.115, -0.016
323.443, 10.109, -0.008
328.142, 10.106, -0.003
332.908, 10.116, -0.007
337.744, 10.108, -0.040
342.650, 10.109, -0.037
347.627, 10.116, -0.008
352.677, 10.109, 0.001
357.799, 10.108, -0.032
362.997, 10.108, -0.009
368.269, 10.113, -0.027
373.619, 10.109, -0.010
379.046, 10.109, -0.025
384.552, 10.112, -0.063
390.138, 10.112, -0.010
395.805, 10.114, 0.014
401.554, 10.117, -0.029
407.387, 10.114, -0.039
413.304, 10.115, -0.077
419.308, 10.122, -0.062
425.399, 10.111, -0.025
431.578, 10.114, -0.042
437.847, 10.109, -0.070
444.207, 10.114, -0.015
450.659, 10.115, -0.030
457.205, 10.108, -0.037
463.847, 10.107, -0.019
470.584, 10.113, -0.001
477.420, 10.108, -0.090
484.355, 10.104, -0.038
491.390, 10.109, -0.010
498.528, 10.114, -0.050
505.770, 10.108, -0.048
513.116, 10.104, -0.046
520.570, 10.105, -0.046
528.131, 10.106, -0.026
535.803, 10.105, -0.017
543.586, 10.106, -0.035
551.482, 10.105, -0.086
559.492, 10.103, 0.010
567.619, 10.113, -0.035
575.864, 10.104, -0.015
584.229, 10.114, -0.051
592.716, 10.099, -0.039
601.325, 10.102, 0.000
610.060, 10.111, -0.095
618.921, 10.106, -0.047
627.912, 10.106, -0.062
637.032, 10.102, -0.030
646.286, 10.107, -0.056
655.673, 10.102, -0.081
665.198, 10.115, -0.034
674.860, 10.104, -0.034
684.663, 10.114, -0.029
694.608, 10.100, -0.083
704.698, 10.103, -0.062
714.934, 10.101, -0.095
725.319, 10.108, 0.031
735.855, 10.106, -0.048
746.543, 10.109, -0.022
757.387, 10.109, -0.073
768.389, 10.108, -0.086
779.550, 10.104, -0.072
790.874, 10.100, -0.057
802.362, 10.096, -0.012
814.017, 10.107, 0.002
825.841, 10.089, -0.037
837.837, 10.105, -0.040
850.007, 10.109, 0.049
862.354, 10.100, -0.081
874.880, 10.114, -0.050
887.588, 10.108, 0.020
900.481, 10.108, -0.044
913.561, 10.103, -0.041
926.831, 10.097, -0.018
940.294, 10.100, -0.061
953.953, 10.110, -0.076
967.810, 10.101, 0.003
981.868, 10.095, -0.054
996.130, 10.107, -0.037
1010.599, 10.092, -0.023
1025.279, 10.091, -0.047
1040.172, 10.092, -0.018
1055.281, 10.084, -0.060
1070.610, 10.102, -0.056
1086.161, 10.097, -0.053
1101.938, 10.095, -0.027
1117.945, 10.096, -0.061
1134.184, 10.097, -0.046
1150.659, 10.098, -0.028
1167.373, 10.095, -0.029
1184.330, 10.090, -0.047
1201.533, 10.089, -0.029
1218.986, 10.088, -0.055
1236.693, 10.095, -0.066
1254.656, 10.086, -0.050
1272.881, 10.079, -0.045
1291.370, 10.084, -0.018
1310.129, 10.083, -0.042
1329.159, 10.086, -0.056
1348.466, 10.092, -0.067
1368.053, 10.095, -0.039
1387.925, 10.097, -0.030
1408.086, 10.087, -0.043
1428.539, 10.087, -0.031
1449.290, 10.077, -0.037
1470.342, 10.085, -0.033
1491.700, 10.082, -0.037
1513.367, 10.080, -0.043
1535.350, 10.078, -0.034
1557.652, 10.079, -0.066
1580.278, 10.082, -0.035
1603.233, 10.077, -0.057
1626.521, 10.080, -0.057
1650.147, 10.082, -0.050
1674.117, 10.078, -0.023
1698.434, 10.068, -0.046
1723.105, 10.068, -0.006
1748.135, 10.075, 0.018
1773.527, 10.075, -0.015
1799.289, 10.072, -0.009
1825.425, 10.076, 0.023
1851.941, 10.073, 0.029
1878.841, 10.068, -0.007
1906.133, 10.073, 0.004
1933.821, 10.071, 0.010
1961.911, 10.061, 0.054
1990.409, 10.060, -0.007
2019.321, 10.059, -0.019
2048.653, 10.057, 0.040
2078.411, 10.062, 0.052
2108.602, 10.060, 0.022
2139.230, 10.060, 0.034
2170.304, 10.051, 0.016
2201.829, 10.054, 0.053
2233.813, 10.049, 0.063
2266.260, 10.049, 0.072
2299.179, 10.055, 0.040
2332.576, 10.053, 0.058
2366.458, 10.053, 0.037
2400.833, 10.051, 0.062
2435.707, 10.046, 0.103
2471.087, 10.043, 0.072
2506.981, 10.047, 0.099
2543.397, 10.045, 0.096
2580.342, 10.042, 0.079
2617.823, 10.042, 0.100
2655.848, 10.035, 0.120
2694.426, 10.031, 0.108
2733.565, 10.037, 0.131
2773.272, 10.028, 0.141
2813.555, 10.027, 0.138
2854.424, 10.027, 0.153
2895.887, 10.024, 0.188
2937.951, 10.023, 0.180
2980.627, 10.029, 0.192
3023.923, 10.023, 0.172
3067.847, 10.018, 0.229
3112.410, 10.018, 0.194
3157.620, 10.018, 0.178
3203.487, 10.017, 0.261
3250.019, 10.012, 0.203
3297.228, 10.021, 0.258
3345.123, 10.013, 0.277
3393.713, 10.009, 0.280
3443.009, 10.011, 0.298
3493.021, 10.006, 0.279
3543.760, 10.002, 0.311
3595.235, 9.997, 0.336
3647.458, 10.005, 0.357
3700.440, 9.996, 0.341
3754.192, 9.990, 0.374
3808.724, 9.995, 0.373
3864.048, 9.994, 0.354
3920.176, 9.995, 0.379
3977.119, 9.990, 0.422
4034.890, 9.984, 0.468
4093.499, 9.972, 0.495
4152.960, 9.980, 0.511
4213.285, 9.979, 0.526
4274.485, 9.981, 0.514
4336.576, 9.973, 0.519
4399.567, 9.966, 0.579
4463.474, 9.966, 0.580
4528.309, 9.966, 0.595
4594.086, 9.969, 0.638
4660.818, 9.966, 0.639
4728.520, 9.960, 0.614
4797.205, 9.952, 0.707
4866.887, 9.956, 0.735
4937.582, 9.959, 0.730
5009.304, 9.950, 0.752
5082.067, 9.952, 0.702
5155.888, 9.945, 0.759
5230.781, 9.946, 0.752
5306.762, 9.945, 0.873
5383.846, 9.949, 0.892
5462.050, 9.944, 0.872
5541.390, 9.934, 0.960
5621.883, 9.936, 1.026
5703.544, 9.936, 0.951
5786.392, 9.934, 1.027
5870.443, 9.933, 1.002
5955.716, 9.934, 1.067
6042.227, 9.931, 1.126
6129.994, 9.928, 1.114
6219.037, 9.923, 1.168
6309.372, 9.932, 1.187
6401.021, 9.915, 1.222
6494.000, 9.915, 1.273
6588.329, 9.910, 1.329
6684.029, 9.920, 1.349
6781.120, 9.913, 1.374
6879.620, 9.909, 1.411
6979.551, 9.908, 1.417
7080.934, 9.913, 1.435
7183.790, 9.900, 1.461
7288.139, 9.904, 1.542
7394.004, 9.908, 1.577
7501.407, 9.892, 1.629
7610.370, 9.896, 1.637
7720.916, 9.907, 1.720
7833.067, 9.900, 1.760
7946.848, 9.882, 1.776
8062.282, 9.903, 1.889
8179.392, 9.888, 1.870
8298.203, 9.891, 1.870
8418.740, 9.888, 1.927
8541.028, 9.875, 2.029
8665.093, 9.882, 1.992
8790.959, 9.884, 2.067
8918.654, 9.885, 2.084
9048.203, 9.880, 2.187
9179.635, 9.880, 2.257
9312.976, 9.867, 2.246
9448.253, 9.870, 2.307
9585.495, 9.866, 2.391
9724.730, 9.867, 2.394
9865.989, 9.881, 2.466
10009.300, 9.867, 2.509
10154.691, 9.863, 2.569
10302.195, 9.872, 2.637
10451.842, 9.858, 2.695
10603.662, 9.857, 2.713
10757.688, 9.858, 2.833
10913.950, 9.868, 2.878
11072.483, 9.859, 2.925
11233.318, 9.850, 2.985
11396.490, 9.854, 2.976
11562.032, 9.849, 3.086
11729.979, 9.851, 3.171
11900.364, 9.848, 3.225
12073.226, 9.848, 3.236
12248.598, 9.839, 3.303
12426.517, 9.852, 3.393
12607.021, 9.839, 3.437
12790.146, 9.837, 3.504
12975.932, 9.835, 3.570
13164.416, 9.840, 3.722
13355.639, 9.836, 3.740
13549.639, 9.841, 3.734
13746.456, 9.837, 3.823
13946.133, 9.835, 3.912
14148.710, 9.826, 4.039
14354.229, 9.827, 4.051
14562.734, 9.824, 4.136
14774.269, 9.834, 4.266
14988.875, 9.819, 4.320
15206.599, 9.833, 4.360
15427.485, 9.823, 4.503
15651.580, 9.818, 4.491
15878.930, 9.821, 4.589
16109.582, 9.816, 4.704
16343.585, 9.814, 4.777
16580.986, 9.818, 4.892
16821.838, 9.819, 4.910
17066.186, 9.816, 5.054
17314.084, 9.809, 5.094
17565.582, 9.810, 5.218
17820.734, 9.810, 5.302
18079.594, 9.806, 5.413
18342.213, 9.810, 5.453
18608.645, 9.808, 5.567
18878.949, 9.803, 5.767
19153.178, 9.802, 5.761
19431.391, 9.807, 5.918
19713.646, 9.805, 5.999
20000.000, 9.792, 6.439
